File: data/dashdata/EIS#5_maxcoat_ss_coating_#01_EIS_1.1_25A_1,25A_EIS_22-08-08_0839_001.txt
,index,datapoints [#],time [s],frequency [Hz],Z_real [Ohm],Z_imag [Ohm],Z_sig [V],Zmod [ohm],Z_phz [Â°C],I_DC [A],V_DC [V],IE_Range [#]
0,,1.0,50000.05,50097.7,0.007741,0.001295,0.007849,9.497602,,,,
1,,2.0,44562.6,44589.8,0.007722,0.001138,0.007805,8.382896,,,,
2,,3.0,39716.5,39785.2,0.007685,0.000981,0.007747,7.276646,,,,
3,,4.0,35397.3,35449.2,0.007654,0.000814,0.007697,6.072874,,,,
4,,5.0,31547.9,31582,0.007632,0.000633,0.007658,4.741198,,,,
5,,6.0,28117.1,28183.6,0.007649,0.000443,0.007662,3.313401,,,,
6,,7.0,25059.4,25136.7,0.0077,0.000276,0.007704,2.052409,,,,
7,,8.0,22334.2,22441.4,0.007792,0.000161,0.007793,1.181814,,,,
8,,9.0,19905.4,19980.5,0.007869,6.029469e-05,0.007869,0.439022,,,,
9,,10.0,17740.7,17753.9,0.007922,-1.227637e-05,0.007922,-0.088784,,,,
10,,11.0,15811.4,15878.9,0.007978,-5.865157e-05,0.007979,-0.421188,,,,
11,,12.0,14091.9,14121.1,0.008037,-0.000105,0.008038,-0.751302,,,,
12,,13.0,12559.4,12597.7,0.008075,-0.000143,0.008076,-1.017608,,,,
13,,14.0,11193.6,11169,0.008115,-0.000181,0.008117,-1.274996,,,,
14,,15.0,9976.32,10019.5,0.008148,-0.000208,0.008151,-1.464815,,,,
15,,16.0,8891.41,8854.17,0.008176,-0.000246,0.00818,-1.72288,,,,
16,,17.0,7924.47,7928.24,0.008207,-0.000271,0.008211,-1.893663,,,,
17,,18.0,7062.69,7089.84,0.008243,-0.000297,0.008248,-2.063884,,,,
18,,19.0,6294.63,6307.87,0.008265,-0.00033,0.008272,-2.289867,,,,
19,,20.0,5610.1,5613.43,0.008299,-0.000359,0.008306,-2.476484,,,,
20,,21.0,5000.005,4973.32,0.008331,-0.000387,0.00834,-2.656931,,,,
21,,22.0,4456.26,4456.02,0.00836,-0.000412,0.00837,-2.822474,,,,
22,,23.0,3971.65,3993.06,0.008386,-0.00044,0.008398,-3.000561,,,,
23,,24.0,3539.73,3530.09,0.008417,-0.00047,0.00843,-3.198599,,,,
24,,25.0,3154.79,3144.05,0.008448,-0.000502,0.008463,-3.402716,,,,
25,,26.0,2811.71,2801.07,0.008479,-0.000534,0.008496,-3.605889,,,,
26,,27.0,2505.94,2519.53,0.008509,-0.000566,0.008528,-3.802614,,,,
27,,28.0,2233.42,2229.42,0.008546,-0.000603,0.008567,-4.036063,,,,
28,,29.0,1990.54,2000.76,0.008585,-0.000634,0.008608,-4.226918,,,,
29,,30.0,1774.07,1772.1,0.008621,-0.00068,0.008648,-4.509296,,,,
30,,31.0,1581.14,1582.03,0.00866,-0.000721,0.00869,-4.756142,,,,
31,,32.0,1409.19,1411.9,0.008704,-0.000766,0.008738,-5.028908,,,,
32,,33.0,1255.94,1253.63,0.00875,-0.000813,0.008787,-5.306424,,,,
33,,34.0,1119.36,1118.61,0.008798,-0.000864,0.008841,-5.608163,,,,
34,,35.0,997.632,1000.7,0.008851,-0.000917,0.008898,-5.914254,,,,
35,,36.0,889.141,885.417,0.008908,-0.000977,0.008962,-6.260617,,,,
36,,37.0,792.447,790.028,0.008973,-0.001036,0.009032,-6.58527,,,,
37,,38.0,706.269,708.576,0.009038,-0.001091,0.009104,-6.884359,,,,
38,,39.0,629.463,628.811,0.009112,-0.001159,0.009186,-7.245952,,,,
39,,40.0,561.01,560.462,0.009193,-0.001226,0.009274,-7.598342,,,,
40,,41.0,500.0005,502.232,0.009272,-0.001301,0.009363,-7.987844,,,,
41,,42.0,445.626,444.079,0.009366,-0.001379,0.009467,-8.375094,,,,
42,,43.0,397.165,395.331,0.009471,-0.001454,0.009582,-8.729737,,,,
43,,44.0,353.973,352.823,0.009579,-0.001534,0.009701,-9.095744,,,,
44,,45.0,315.479,315.505,0.009693,-0.001607,0.009826,-9.410253,,,,
45,,46.0,281.171,282.38,0.009812,-0.001681,0.009955,-9.72054,,,,
46,,47.0,250.594,249.335,0.009966,-0.001773,0.010123,-10.08829,,,,
47,,48.0,223.342,223.214,0.010107,-0.001837,0.010273,-10.2999,,,,
48,,49.0,199.054,198.623,0.01026,-0.001914,0.010437,-10.5643,,,,
49,,50.0,177.407,177.557,0.01043,-0.001971,0.010614,-10.7029,,,,
50,,51.0,158.114,158.006,0.010615,-0.002028,0.010807,-10.8189,,,,
51,,52.0,140.919,140.625,0.01079,-0.002081,0.010989,-10.9176,,,,
52,,53.0,125.594,125.558,0.010989,-0.002117,0.011191,-10.9023,,,,
53,,54.0,111.936,111.607,0.011193,-0.002128,0.011394,-10.7634,,,,
54,,55.0,99.7632,99.734,0.011405,-0.002138,0.011604,-10.6198,,,,
55,,56.0,88.9141,89.2857,0.011558,-0.002164,0.011758,-10.6044,,,,
56,,57.0,79.2447,79.44915,0.011833,-0.002142,0.012026,-10.2599,,,,
57,,58.0,70.6269,70.4887,0.012005,-0.00211,0.012189,-9.969902,,,,
58,,59.0,62.9463,62.9195,0.012202,-0.002092,0.01238,-9.726267,,,,
59,,60.0,56.101,55.80357,0.012378,-0.001942,0.012529,-8.918111,,,,
60,,61.0,50.00005,49.86702,0.012582,-0.002,0.01274,-9.029911,,,,
61,,62.0,44.5626,44.6429,0.012735,-0.001925,0.01288,-8.595035,,,,
62,,63.0,39.7165,39.7246,0.012854,-0.001806,0.01298,-7.998562,,,,
63,,64.0,35.3973,35.5114,0.012973,-0.00176,0.013091,-7.724244,,,,
64,,65.0,31.5479,31.4597,0.013173,-0.001715,0.013284,-7.419074,,,,
65,,66.0,28.1171,28.238,0.01323,-0.001624,0.01333,-6.998014,,,,
66,,67.0,25.0594,24.93351,0.013327,-0.001536,0.013415,-6.574894,,,,
67,,68.0,22.3342,22.3214,0.013475,-0.001481,0.013557,-6.269989,,,,
68,,69.0,19.9054,19.8623,0.013488,-0.001439,0.013564,-6.087718,,,,
69,,70.0,17.7407,17.7557,0.01362,-0.001309,0.013683,-5.489913,,,,
70,,71.0,15.8114,15.7828,0.013682,-0.001356,0.013749,-5.658155,,,,
71,,72.0,14.0919,14.119,0.01379,-0.001294,0.013851,-5.362322,,,,
72,,73.0,12.5594,12.6008,0.013884,-0.001383,0.013952,-5.687139,,,,
73,,74.0,11.1936,11.1607,0.013952,-0.001294,0.014011,-5.299169,,,,
74,,75.0,9.976322,9.973404,0.014107,-0.001313,0.014168,-5.315915,,,,
75,,76.0,8.891406,8.877841,0.01421,-0.001284,0.014268,-5.161977,,,,
76,,77.0,7.924474,7.878151,0.01424,-0.00124,0.014294,-4.978293,,,,
77,,78.0,7.062695,7.059488,0.014392,-0.001116,0.014435,-4.435034,,,,
78,,79.0,6.294633,6.2751,0.014471,-0.001152,0.014516,-4.549773,,,,
79,,80.0,5.610098,5.580357,0.014524,-0.000965,0.014556,-3.801185,,,,
80,,81.0,5.000005,5.013369,0.014671,-0.000998,0.014705,-3.892838,,,,
81,,82.0,4.456259,4.451567,0.014784,-0.000854,0.014808,-3.307826,,,,
82,,83.0,3.971645,3.985969,0.014829,-0.000776,0.01485,-2.995641,,,,
83,,84.0,3.539732,3.529744,0.01484,-0.000727,0.014858,-2.805125,,,,
84,,85.0,3.15479,3.13755,0.014947,-0.0006,0.014959,-2.298078,,,,
85,,86.0,2.811709,2.823795,0.014948,-0.000532,0.014957,-2.039573,,,,
86,,87.0,2.505939,2.516103,0.014977,-0.000496,0.014985,-1.897696,,,,
87,,88.0,2.23342,2.225784,0.015005,-0.000354,0.015009,-1.353048,,,,
88,,89.0,1.990538,1.99553,0.014966,-0.000287,0.014969,-1.097643,,,,
89,,90.0,1.774069,1.775568,0.01496,-0.000239,0.014962,-0.916958,,,,
90,,91.0,1.58114,1.583615,0.014963,-0.000163,0.014964,-0.624259,,,,
91,,92.0,1.409193,1.411472,0.014934,-0.000109,0.014934,-0.419271,,,,
92,,93.0,1.255944,1.258052,0.014915,-3.075109e-05,0.014915,-0.11813,,,,
93,,94.0,1.119362,1.112892,0.014927,-9.329701e-06,0.014927,-0.03581,,,,
94,,95.0,0.997632,0.997765,0.014862,6.855775e-05,0.014862,0.264303,,,,
95,,96.0,0.889141,0.890313,0.014856,9.703321e-05,0.014857,0.374217,,,,
96,,97.0,0.792447,0.792745,0.014814,0.000114,0.014814,0.439774,,,,
97,,98.0,0.706269,0.705736,0.014767,0.000199,0.014769,0.772163,,,,
98,,99.0,0.629463,0.63004,0.014711,0.000215,0.014712,0.837372,,,,
99,,100.0,0.56101,0.563401,0.014674,0.000257,0.014677,1.003524,,,,
100,,101.0,0.500001,0.500801,0.014643,0.000283,0.014646,1.107207,,,,
101,,102.0,0.445626,0.447281,0.014562,0.000313,0.014565,1.230931,,,,
102,,103.0,0.397165,0.398597,0.014539,0.000321,0.014542,1.26674,,,,
103,,104.0,0.353973,0.355114,0.014502,0.000325,0.014505,1.283253,,,,
104,,105.0,0.315479,0.316723,0.014424,0.000368,0.014429,1.460044,,,,
105,,106.0,0.281171,0.281701,0.014376,0.000381,0.014381,1.517518,,,,
106,,107.0,0.250594,0.251475,0.014297,0.000398,0.014303,1.594191,,,,
107,,108.0,0.223342,0.22364,0.014248,0.000401,0.014254,1.613562,,,,
108,,109.0,0.199054,0.199298,0.014179,0.000444,0.014186,1.794326,,,,
109,,110.0,0.177407,0.177557,0.01411,0.000452,0.014117,1.835115,,,,
110,,111.0,0.158114,0.158361,0.014047,0.00047,0.014055,1.916393,,,,
111,,112.0,0.140919,0.14119,0.013993,0.000489,0.014001,2.002219,,,,
112,,113.0,0.125594,0.125738,0.01391,0.0005,0.013919,2.05713,,,,
113,,114.0,0.111936,0.112034,0.013853,0.000512,0.013863,2.114745,,,,