File: data/dashdata/EIS#1_maxcoat_ss_coating_#01_EIS_1.1_25A_1,25A_EIS_22-08-03_1202_001.txt
,index,datapoints [#],time [s],frequency [Hz],Z_real [Ohm],Z_imag [Ohm],Z_sig [V],Zmod [ohm],Z_phz [Â°C],I_DC [A],V_DC [V],IE_Range [#]
0,,1.0,50000.05,50097.7,0.007606,0.001259,0.00771,9.39911,,,,
1,,2.0,44562.6,44589.8,0.007584,0.001096,0.007663,8.225552,,,,
2,,3.0,39716.5,39785.2,0.007555,0.000943,0.007614,7.111289,,,,
3,,4.0,35397.3,35449.2,0.007527,0.000773,0.007567,5.866153,,,,
4,,5.0,31547.9,31582,0.007526,0.000588,0.007549,4.468447,,,,
5,,6.0,28117.1,28183.6,0.007528,0.000406,0.007539,3.084279,,,,
6,,7.0,25059.4,25136.7,0.007582,0.000238,0.007586,1.796316,,,,
7,,8.0,22334.2,22441.4,0.007651,9.835238e-05,0.007651,0.736523,,,,
8,,9.0,19905.4,19980.5,0.007756,2.630927e-05,0.007756,0.194355,,,,
9,,10.0,17740.7,17753.9,0.007809,-4.785662e-05,0.007809,-0.351121,,,,
10,,11.0,15811.4,15878.9,0.00787,-0.000101,0.00787,-0.735214,,,,
11,,12.0,14091.9,14121.1,0.007918,-0.000145,0.007919,-1.048031,,,,
12,,13.0,12559.4,12597.7,0.007967,-0.000188,0.00797,-1.352693,,,,
13,,14.0,11193.6,11169,0.008008,-0.000224,0.008011,-1.599489,,,,
14,,15.0,9976.32,10019.5,0.008042,-0.000259,0.008046,-1.844765,,,,
15,,16.0,8891.41,8854.17,0.008078,-0.000293,0.008084,-2.074521,,,,
16,,17.0,7924.47,7928.24,0.008111,-0.000325,0.008117,-2.293187,,,,
17,,18.0,7062.69,7089.84,0.008143,-0.000355,0.008151,-2.497872,,,,
18,,19.0,6294.63,6307.87,0.008173,-0.000387,0.008182,-2.708237,,,,
19,,20.0,5610.1,5613.43,0.00821,-0.000417,0.008221,-2.907628,,,,
20,,21.0,5000.005,4973.32,0.008248,-0.000447,0.00826,-3.101585,,,,
21,,22.0,4456.26,4456.02,0.008279,-0.000477,0.008292,-3.295929,,,,
22,,23.0,3971.65,3993.06,0.008312,-0.000505,0.008327,-3.475675,,,,
23,,24.0,3539.73,3530.09,0.008349,-0.000539,0.008367,-3.696574,,,,
24,,25.0,3154.79,3144.05,0.008385,-0.000572,0.008405,-3.899645,,,,
25,,26.0,2811.71,2801.07,0.008425,-0.000608,0.008447,-4.125577,,,,
26,,27.0,2505.94,2519.53,0.008462,-0.000639,0.008486,-4.316567,,,,
27,,28.0,2233.42,2229.42,0.008506,-0.000677,0.008533,-4.549566,,,,
28,,29.0,1990.54,2000.76,0.008547,-0.000712,0.008576,-4.762669,,,,
29,,30.0,1774.07,1772.1,0.008596,-0.000754,0.008629,-5.012924,,,,
30,,31.0,1581.14,1582.03,0.008645,-0.000794,0.008681,-5.247153,,,,
31,,32.0,1409.19,1411.9,0.008696,-0.000837,0.008736,-5.500865,,,,
32,,33.0,1255.94,1253.63,0.008753,-0.000883,0.008797,-5.757863,,,,
33,,34.0,1119.36,1118.61,0.008813,-0.000928,0.008862,-6.011027,,,,
34,,35.0,997.632,1000.7,0.008872,-0.000973,0.008925,-6.258225,,,,
35,,36.0,889.141,885.417,0.008944,-0.001024,0.009002,-6.530826,,,,
36,,37.0,792.447,790.028,0.009015,-0.001075,0.009079,-6.799382,,,,
37,,38.0,706.269,708.576,0.009093,-0.00112,0.009162,-7.022162,,,,
38,,39.0,629.463,628.811,0.009175,-0.001167,0.009249,-7.246225,,,,
39,,40.0,561.01,560.462,0.009264,-0.001216,0.009344,-7.475149,,,,
40,,41.0,500.0005,502.232,0.009347,-0.001273,0.009434,-7.756383,,,,
41,,42.0,445.626,444.079,0.009453,-0.001326,0.009546,-7.982177,,,,
42,,43.0,397.165,395.331,0.009555,-0.001374,0.009654,-8.182472,,,,
43,,44.0,353.973,352.823,0.009662,-0.001428,0.009767,-8.407248,,,,
44,,45.0,315.479,315.505,0.00977,-0.001471,0.00988,-8.560037,,,,
45,,46.0,281.171,282.38,0.009883,-0.001519,0.009999,-8.737241,,,,
46,,47.0,250.594,249.335,0.010023,-0.001563,0.010144,-8.862971,,,,
47,,48.0,223.342,223.214,0.010143,-0.001604,0.010269,-8.987411,,,,
48,,49.0,199.054,198.623,0.010275,-0.001642,0.010406,-9.081372,,,,
49,,50.0,177.407,177.557,0.010413,-0.001678,0.010547,-9.152205,,,,
50,,51.0,158.114,158.006,0.010558,-0.001696,0.010693,-9.128421,,,,
51,,52.0,140.919,140.625,0.010713,-0.001735,0.010853,-9.200744,,,,
52,,53.0,125.594,125.558,0.010862,-0.001752,0.011002,-9.164952,,,,
53,,54.0,111.936,111.607,0.011023,-0.001757,0.011162,-9.056945,,,,
54,,55.0,99.7632,99.734,0.011181,-0.001759,0.011318,-8.943044,,,,
55,,56.0,88.9141,89.2857,0.011343,-0.001747,0.011476,-8.757052,,,,
56,,57.0,79.2447,79.44915,0.011482,-0.001739,0.011613,-8.614346,,,,
57,,58.0,70.6269,70.4887,0.011696,-0.001707,0.01182,-8.302369,,,,
58,,59.0,62.9463,62.9195,0.011736,-0.001676,0.011855,-8.126394,,,,
59,,60.0,56.101,55.80357,0.011994,-0.001667,0.012109,-7.912017,,,,
60,,61.0,50.00005,49.86702,0.012122,-0.001564,0.012223,-7.349444,,,,
61,,62.0,44.5626,44.6429,0.012196,-0.001576,0.012297,-7.361416,,,,
62,,63.0,39.7165,39.7246,0.012318,-0.001466,0.012405,-6.787071,,,,
63,,64.0,35.3973,35.5114,0.01239,-0.001429,0.012472,-6.58097,,,,
64,,65.0,31.5479,31.4597,0.012487,-0.001382,0.012563,-6.31531,,,,
65,,66.0,28.1171,28.238,0.012547,-0.001305,0.012615,-5.936341,,,,
66,,67.0,25.0594,24.93351,0.012737,-0.001287,0.012802,-5.768584,,,,
67,,68.0,22.3342,22.3214,0.012751,-0.001227,0.01281,-5.497108,,,,
68,,69.0,19.9054,19.8623,0.01281,-0.001205,0.012866,-5.373802,,,,
69,,70.0,17.7407,17.7557,0.012967,-0.001145,0.013017,-5.046948,,,,
70,,71.0,15.8114,15.7828,0.012945,-0.001163,0.012998,-5.135163,,,,
71,,72.0,14.0919,14.119,0.013064,-0.001111,0.013111,-4.862989,,,,
72,,73.0,12.5594,12.6008,0.013116,-0.001177,0.013169,-5.126242,,,,
73,,74.0,11.1936,11.1607,0.013211,-0.001082,0.013256,-4.682025,,,,
74,,75.0,9.976322,9.973404,0.013259,-0.001113,0.013306,-4.79812,,,,
75,,76.0,8.891406,8.877841,0.01344,-0.001011,0.013478,-4.302958,,,,
76,,77.0,7.924474,7.878151,0.013489,-0.001009,0.013527,-4.276888,,,,
77,,78.0,7.062695,7.059488,0.013621,-0.001031,0.01366,-4.327937,,,,
78,,79.0,6.294633,6.2751,0.013689,-0.000964,0.013723,-4.026397,,,,
79,,80.0,5.610098,5.580357,0.013702,-0.000896,0.013732,-3.741119,,,,
80,,81.0,5.000005,5.013369,0.013778,-0.000851,0.013805,-3.535299,,,,
81,,82.0,4.456259,4.451567,0.013935,-0.000769,0.013956,-3.15683,,,,
82,,83.0,3.971645,3.985969,0.013869,-0.000696,0.013886,-2.871675,,,,
83,,84.0,3.539732,3.529744,0.013988,-0.000601,0.014001,-2.461168,,,,
84,,85.0,3.15479,3.13755,0.014046,-0.000502,0.014055,-2.044803,,,,
85,,86.0,2.811709,2.823795,0.014077,-0.000435,0.014084,-1.769432,,,,
86,,87.0,2.505939,2.516103,0.014082,-0.000389,0.014088,-1.581789,,,,
87,,88.0,2.23342,2.225784,0.014081,-0.000337,0.014086,-1.371402,,,,
88,,89.0,1.990538,1.99553,0.014114,-0.000258,0.014116,-1.049066,,,,
89,,90.0,1.774069,1.775568,0.014064,-0.00017,0.014065,-0.694143,,,,
90,,91.0,1.58114,1.583615,0.014132,-0.000123,0.014132,-0.499813,,,,
91,,92.0,1.409193,1.411472,0.014129,-8.816431e-05,0.01413,-0.357511,,,,
92,,93.0,1.255944,1.258052,0.014076,6.492629e-06,0.014076,0.026428,,,,
93,,94.0,1.119362,1.112892,0.013993,1.25004e-06,0.013993,0.005118,,,,
94,,95.0,0.997632,0.997765,0.013979,0.000104,0.01398,0.425791,,,,
95,,96.0,0.889141,0.890313,0.013984,0.000134,0.013985,0.549427,,,,
96,,97.0,0.792447,0.792745,0.013957,0.000207,0.013959,0.8477,,,,
97,,98.0,0.706269,0.705736,0.013876,0.00021,0.013877,0.868666,,,,
98,,99.0,0.629463,0.63004,0.013842,0.000255,0.013844,1.055085,,,,
99,,100.0,0.56101,0.563401,0.013798,0.000295,0.013801,1.22611,,,,
100,,101.0,0.500001,0.500801,0.013739,0.000323,0.013743,1.348254,,,,
101,,102.0,0.445626,0.447281,0.013738,0.000341,0.013742,1.422512,,,,
102,,103.0,0.397165,0.398597,0.013638,0.000374,0.013643,1.572606,,,,
103,,104.0,0.353973,0.355114,0.013579,0.000426,0.013586,1.795669,,,,
104,,105.0,0.315479,0.316723,0.013541,0.000399,0.013547,1.687461,,,,
105,,106.0,0.281171,0.281701,0.013459,0.000428,0.013466,1.823365,,,,
106,,107.0,0.250594,0.251475,0.01338,0.000437,0.013387,1.870358,,,,
107,,108.0,0.223342,0.22364,0.013334,0.000461,0.013342,1.979862,,,,
108,,109.0,0.199054,0.199298,0.01326,0.000477,0.013268,2.062092,,,,
109,,110.0,0.177407,0.177557,0.013213,0.000471,0.013222,2.043684,,,,
110,,111.0,0.158114,0.158361,0.013122,0.000477,0.013131,2.08124,,,,
111,,112.0,0.140919,0.14119,0.013057,0.000493,0.013067,2.164458,,,,
112,,113.0,0.125594,0.125738,0.012975,0.000508,0.012985,2.240401,,,,
113,,114.0,0.111936,0.112034,0.012889,0.000491,0.012899,2.18051,,,,