File: data/dashdata/EIS#4_maxcoat_ss_coating_#01_EIS_1.1_25A_1,25A_EIS_22-08-07_0535_001.txt
,index,datapoints [#],time [s],frequency [Hz],Z_real [Ohm],Z_imag [Ohm],Z_sig [V],Zmod [ohm],Z_phz [Â°C],I_DC [A],V_DC [V],IE_Range [#]
0,,1.0,50000.05,50097.7,0.007706,0.001277,0.007811,9.410186,,,,
1,,2.0,44562.6,44589.8,0.007683,0.001118,0.007764,8.276738,,,,
2,,3.0,39716.5,39785.2,0.007652,0.000963,0.007712,7.176618,,,,
3,,4.0,35397.3,35449.2,0.007618,0.000795,0.007659,5.955873,,,,
4,,5.0,31547.9,31582,0.007599,0.000611,0.007624,4.600623,,,,
5,,6.0,28117.1,28183.6,0.007614,0.000427,0.007626,3.210455,,,,
6,,7.0,25059.4,25136.7,0.007669,0.000257,0.007674,1.918477,,,,
7,,8.0,22334.2,22441.4,0.007736,0.000116,0.007736,0.859401,,,,
8,,9.0,19905.4,19980.5,0.007842,4.210266e-05,0.007843,0.307593,,,,
9,,10.0,17740.7,17753.9,0.007897,-3.225662e-05,0.007897,-0.23404,,,,
10,,11.0,15811.4,15878.9,0.007961,-8.282885e-05,0.007962,-0.59608,,,,
11,,12.0,14091.9,14121.1,0.008013,-0.000139,0.008015,-0.995738,,,,
12,,13.0,12559.4,12597.7,0.008055,-0.000166,0.008057,-1.182334,,,,
13,,14.0,11193.6,11169,0.008095,-0.000203,0.008098,-1.435238,,,,
14,,15.0,9976.32,10019.5,0.008124,-0.000228,0.008127,-1.605506,,,,
15,,16.0,8891.41,8854.17,0.008162,-0.000273,0.008167,-1.916423,,,,
16,,17.0,7924.47,7928.24,0.008193,-0.000299,0.008198,-2.091284,,,,
17,,18.0,7062.69,7089.84,0.008222,-0.000326,0.008229,-2.272356,,,,
18,,19.0,6294.63,6307.87,0.008254,-0.000355,0.008262,-2.465709,,,,
19,,20.0,5610.1,5613.43,0.008284,-0.000381,0.008292,-2.63406,,,,
20,,21.0,5000.005,4973.32,0.008321,-0.000412,0.008331,-2.836825,,,,
21,,22.0,4456.26,4456.02,0.00835,-0.000442,0.008362,-3.031765,,,,
22,,23.0,3971.65,3993.06,0.008379,-0.000466,0.008392,-3.186729,,,,
23,,24.0,3539.73,3530.09,0.008411,-0.000501,0.008426,-3.407145,,,,
24,,25.0,3154.79,3144.05,0.008444,-0.000533,0.008461,-3.61133,,,,
25,,26.0,2811.71,2801.07,0.008478,-0.000567,0.008497,-3.827442,,,,
26,,27.0,2505.94,2519.53,0.008509,-0.000598,0.00853,-4.016928,,,,
27,,28.0,2233.42,2229.42,0.008548,-0.000637,0.008572,-4.258664,,,,
28,,29.0,1990.54,2000.76,0.008588,-0.000674,0.008614,-4.490665,,,,
29,,30.0,1774.07,1772.1,0.00863,-0.000715,0.00866,-4.736657,,,,
30,,31.0,1581.14,1582.03,0.008675,-0.000756,0.008708,-4.98294,,,,
31,,32.0,1409.19,1411.9,0.00872,-0.0008,0.008756,-5.243541,,,,
32,,33.0,1255.94,1253.63,0.008773,-0.000851,0.008814,-5.541335,,,,
33,,34.0,1119.36,1118.61,0.008823,-0.0009,0.008869,-5.824235,,,,
34,,35.0,997.632,1000.7,0.008878,-0.000952,0.008929,-6.122594,,,,
35,,36.0,889.141,885.417,0.008943,-0.00101,0.009,-6.442694,,,,
36,,37.0,792.447,790.028,0.009008,-0.001064,0.009071,-6.734321,,,,
37,,38.0,706.269,708.576,0.009075,-0.00112,0.009143,-7.033802,,,,
38,,39.0,629.463,628.811,0.009161,-0.001181,0.009236,-7.34581,,,,
39,,40.0,561.01,560.462,0.00924,-0.001247,0.009324,-7.685657,,,,
40,,41.0,500.0005,502.232,0.009325,-0.001315,0.009417,-8.027894,,,,
41,,42.0,445.626,444.079,0.009427,-0.001386,0.009528,-8.362222,,,,
42,,43.0,397.165,395.331,0.009532,-0.001451,0.009642,-8.654675,,,,
43,,44.0,353.973,352.823,0.009637,-0.00152,0.009756,-8.963338,,,,
44,,45.0,315.479,315.505,0.009749,-0.001584,0.009877,-9.231683,,,,
45,,46.0,281.171,282.38,0.009872,-0.001654,0.010009,-9.510165,,,,
46,,47.0,250.594,249.335,0.010016,-0.00172,0.010163,-9.745855,,,,
47,,48.0,223.342,223.214,0.010155,-0.001787,0.010311,-9.981989,,,,
48,,49.0,199.054,198.623,0.010313,-0.001844,0.010476,-10.1383,,,,
49,,50.0,177.407,177.557,0.010467,-0.001895,0.010637,-10.2629,,,,
50,,51.0,158.114,158.006,0.010636,-0.001946,0.010813,-10.3686,,,,
51,,52.0,140.919,140.625,0.010819,-0.001984,0.010999,-10.3923,,,,
52,,53.0,125.594,125.558,0.011,-0.002009,0.011182,-10.3514,,,,
53,,54.0,111.936,111.607,0.011183,-0.002032,0.011366,-10.3004,,,,
54,,55.0,99.7632,99.734,0.011384,-0.002048,0.011566,-10.1997,,,,
55,,56.0,88.9141,89.2857,0.01155,-0.002047,0.01173,-10.052,,,,
56,,57.0,79.2447,79.44915,0.011726,-0.00201,0.011897,-9.728614,,,,
57,,58.0,70.6269,70.4887,0.011971,-0.001981,0.012134,-9.395082,,,,
58,,59.0,62.9463,62.9195,0.012101,-0.001924,0.012253,-9.03414,,,,
59,,60.0,56.101,55.80357,0.012357,-0.001874,0.012499,-8.623226,,,,
60,,61.0,50.00005,49.86702,0.012382,-0.001896,0.012527,-8.703971,,,,
61,,62.0,44.5626,44.6429,0.012565,-0.001828,0.012697,-8.277512,,,,
62,,63.0,39.7165,39.7246,0.012732,-0.00172,0.012847,-7.695905,,,,
63,,64.0,35.3973,35.5114,0.012866,-0.00164,0.01297,-7.263473,,,,
64,,65.0,31.5479,31.4597,0.012962,-0.001603,0.01306,-7.047974,,,,
65,,66.0,28.1171,28.238,0.013047,-0.001519,0.013135,-6.642633,,,,
66,,67.0,25.0594,24.93351,0.013172,-0.001454,0.013253,-6.30062,,,,
67,,68.0,22.3342,22.3214,0.013226,-0.001449,0.013306,-6.251614,,,,
68,,69.0,19.9054,19.8623,0.013278,-0.001424,0.013355,-6.122732,,,,
69,,70.0,17.7407,17.7557,0.013416,-0.001325,0.013481,-5.639657,,,,
70,,71.0,15.8114,15.7828,0.013449,-0.001335,0.013515,-5.670623,,,,
71,,72.0,14.0919,14.119,0.013588,-0.001279,0.013648,-5.376654,,,,
72,,73.0,12.5594,12.6008,0.013662,-0.001286,0.013722,-5.375561,,,,
73,,74.0,11.1936,11.1607,0.013718,-0.00127,0.013777,-5.290747,,,,
74,,75.0,9.976322,9.973404,0.013838,-0.001223,0.013892,-5.049638,,,,
75,,76.0,8.891406,8.877841,0.014038,-0.001209,0.01409,-4.920736,,,,
76,,77.0,7.924474,7.878151,0.01406,-0.001168,0.014109,-4.75051,,,,
77,,78.0,7.062695,7.059488,0.014162,-0.001172,0.014211,-4.732558,,,,
78,,79.0,6.294633,6.2751,0.014287,-0.001056,0.014326,-4.225322,,,,
79,,80.0,5.610098,5.580357,0.014365,-0.000973,0.014398,-3.874398,,,,
80,,81.0,5.000005,5.013369,0.014446,-0.000923,0.014475,-3.657377,,,,
81,,82.0,4.456259,4.451567,0.014536,-0.000844,0.01456,-3.324293,,,,
82,,83.0,3.971645,3.985969,0.014586,-0.000796,0.014607,-3.125507,,,,
83,,84.0,3.539732,3.529744,0.014614,-0.000684,0.01463,-2.680703,,,,
84,,85.0,3.15479,3.13755,0.014686,-0.000606,0.014698,-2.362903,,,,
85,,86.0,2.811709,2.823795,0.014689,-0.000523,0.014699,-2.040887,,,,
86,,87.0,2.505939,2.516103,0.014745,-0.000498,0.014753,-1.934034,,,,
87,,88.0,2.23342,2.225784,0.01475,-0.000318,0.014754,-1.23681,,,,
88,,89.0,1.990538,1.99553,0.014761,-0.000293,0.014764,-1.136783,,,,
89,,90.0,1.774069,1.775568,0.014754,-0.000222,0.014756,-0.862847,,,,
90,,91.0,1.58114,1.583615,0.014736,-0.000139,0.014737,-0.540442,,,,
91,,92.0,1.409193,1.411472,0.014726,-0.000118,0.014726,-0.460065,,,,
92,,93.0,1.255944,1.258052,0.014693,-5.003763e-05,0.014693,-0.19512,,,,
93,,94.0,1.119362,1.112892,0.014693,2.751818e-05,0.014693,0.107305,,,,
94,,95.0,0.997632,0.997765,0.014648,3.342891e-05,0.014648,0.130756,,,,
95,,96.0,0.889141,0.890313,0.014605,9.84193e-05,0.014605,0.386094,,,,
96,,97.0,0.792447,0.792745,0.014591,0.000116,0.014591,0.455055,,,,
97,,98.0,0.706269,0.705736,0.014543,0.000185,0.014545,0.73064,,,,
98,,99.0,0.629463,0.63004,0.014492,0.000222,0.014494,0.875705,,,,
99,,100.0,0.56101,0.563401,0.014432,0.000234,0.014434,0.928916,,,,
100,,101.0,0.500001,0.500801,0.014391,0.000279,0.014394,1.109055,,,,
101,,102.0,0.445626,0.447281,0.014345,0.000297,0.014349,1.185362,,,,
102,,103.0,0.397165,0.398597,0.014276,0.000307,0.014279,1.232518,,,,
103,,104.0,0.353973,0.355114,0.014216,0.000321,0.01422,1.295031,,,,
104,,105.0,0.315479,0.316723,0.01416,0.000365,0.014165,1.475711,,,,
105,,106.0,0.281171,0.281701,0.014103,0.000387,0.014108,1.571411,,,,
106,,107.0,0.250594,0.251475,0.014053,0.000389,0.014058,1.585413,,,,
107,,108.0,0.223342,0.22364,0.013975,0.000416,0.013981,1.704809,,,,
108,,109.0,0.199054,0.199298,0.013914,0.000416,0.01392,1.713092,,,,
109,,110.0,0.177407,0.177557,0.013845,0.00044,0.013852,1.818905,,,,
110,,111.0,0.158114,0.158361,0.013794,0.000471,0.013802,1.955507,,,,
111,,112.0,0.140919,0.14119,0.013722,0.000469,0.01373,1.956909,,,,
112,,113.0,0.125594,0.125738,0.013743,0.000502,0.013752,2.093901,,,,
113,,114.0,0.111936,0.112034,0.013624,0.000505,0.013633,2.123876,,,,